File:              	C:\Qtrac\Data\Daniel M Sørensen\MScan multicentre study\Data from centres\Edmonton\Processed data\MSCC00925C.QZD
Name:              	CA.EDM.NC.8.1
Protocol:          	MSCAN-R2
Date:              	25/9/20
Start time:        	20:07:23
Age:               	44
Sex:               	F
Temperature:       	33.8
S/R sites:         	TA
NC/disease:        	NC
Operator:          	KJ
Comments:
M-SCAN DATA (Repeat 3/3, 21.3-14.5m)
Scanpts: 29, 41, 701, 722
Stim. (mA)     	Amp. (mV)
MS.1           	37             	6.03
MS.2           	37             	6.023
MS.3           	37             	6.036
MS.4           	37             	6.018
MS.5           	37             	6.017
MS.6           	37             	6.002
MS.7           	37             	5.992
MS.8           	37             	5.997
MS.9           	37             	5.991
MS.10          	37             	5.99
MS.11          	37             	6.005
MS.12          	37             	6.003
MS.13          	37             	5.984
MS.14          	37             	5.996
MS.15          	37             	5.994
MS.16          	37             	5.995
MS.17          	37             	5.983
MS.18          	37             	5.978
MS.19          	37             	5.99
MS.20          	37             	5.989
MS.21          	37             	6
MS.22          	37             	5.986
MS.23          	37             	6.013
MS.24          	36.925         	5.983
MS.25          	36.778         	5.981
MS.26          	36.705         	5.988
MS.27          	36.632         	5.973
MS.28          	36.557         	5.969
MS.29          	36.485         	5.973
MS.30          	36.412         	5.988
MS.31          	36.34          	5.975
MS.32          	36.267         	5.973
MS.33          	36.195         	5.984
MS.34          	36.122         	5.974
MS.35          	36.05          	5.975
MS.36          	35.978         	5.962
MS.37          	35.907         	5.972
MS.38          	35.835         	5.986
MS.39          	35.763         	5.974
MS.40          	35.693         	5.966
MS.41          	35.62          	5.98
MS.42          	35.55          	5.969
MS.43          	35.478         	5.967
MS.44          	35.407         	5.983
MS.45          	35.337         	5.969
MS.46          	35.265         	5.995
MS.47          	35.195         	5.972
MS.48          	35.125         	5.974
MS.49          	35.055         	5.957
MS.50          	34.985         	5.988
MS.51          	34.915         	5.974
MS.52          	34.845         	5.963
MS.53          	34.775         	5.977
MS.54          	34.705         	5.97
MS.55          	34.638         	5.984
MS.56          	34.568         	5.981
MS.57          	34.497         	5.978
MS.58          	34.43          	5.978
MS.59          	34.36          	5.977
MS.60          	34.292         	5.952
MS.61          	34.222         	5.95
MS.62          	34.155         	5.962
MS.63          	34.087         	5.956
MS.64          	34.02          	5.968
MS.65          	33.95          	5.979
MS.66          	33.882         	5.963
MS.67          	33.815         	5.981
MS.68          	33.747         	5.974
MS.69          	33.68          	5.977
MS.70          	33.612         	5.95
MS.71          	33.545         	5.969
MS.72          	33.48          	5.979
MS.73          	33.412         	5.975
MS.74          	33.345         	5.97
MS.75          	33.278         	5.969
MS.76          	33.212         	5.99
MS.77          	33.145         	5.962
MS.78          	33.08          	5.969
MS.79          	33.013         	5.967
MS.80          	32.947         	5.969
MS.81          	32.882         	5.975
MS.82          	32.815         	5.963
MS.83          	32.75          	5.95
MS.84          	32.685         	5.979
MS.85          	32.62          	5.957
MS.86          	32.555         	5.957
MS.87          	32.49          	5.966
MS.88          	32.425         	5.944
MS.89          	32.36          	5.951
MS.90          	32.295         	5.961
MS.91          	32.23          	5.938
MS.92          	32.167         	5.94
MS.93          	32.103         	5.956
MS.94          	32.037         	5.966
MS.95          	31.975         	5.95
MS.96          	31.91          	5.929
MS.97          	31.845         	5.936
MS.98          	31.782         	5.941
MS.99          	31.72          	5.942
MS.100         	31.655         	5.967
MS.101         	31.592         	5.959
MS.102         	31.53          	5.942
MS.103         	31.467         	5.938
MS.104         	31.403         	5.925
MS.105         	31.34          	5.95
MS.106         	31.278         	5.945
MS.107         	31.215         	5.9
MS.108         	31.153         	5.928
MS.109         	31.09          	5.894
MS.110         	31.03          	5.918
MS.111         	30.967         	5.876
MS.112         	30.905         	5.883
MS.113         	30.842         	5.896
MS.114         	30.782         	5.873
MS.115         	30.72          	5.896
MS.116         	30.657         	5.864
MS.117         	30.597         	5.87
MS.118         	30.537         	5.868
MS.119         	30.475         	5.886
MS.120         	30.415         	5.88
MS.121         	30.352         	5.885
MS.122         	30.292         	5.874
MS.123         	30.233         	5.874
MS.124         	30.172         	5.874
MS.125         	30.112         	5.872
MS.126         	30.052         	5.881
MS.127         	29.992         	5.881
MS.128         	29.932         	5.875
MS.129         	29.872         	5.859
MS.130         	29.812         	5.858
MS.131         	29.752         	5.854
MS.132         	29.692         	5.853
MS.133         	29.635         	5.846
MS.134         	29.575         	5.847
MS.135         	29.515         	5.845
MS.136         	29.457         	5.835
MS.137         	29.397         	5.833
MS.138         	29.34          	5.795
MS.139         	29.28          	5.845
MS.140         	29.222         	5.834
MS.141         	29.162         	5.826
MS.142         	29.105         	5.826
MS.143         	29.047         	5.829
MS.144         	28.99          	5.822
MS.145         	28.93          	5.811
MS.146         	28.872         	5.82
MS.147         	28.815         	5.824
MS.148         	28.757         	5.806
MS.149         	28.7           	5.807
MS.150         	28.642         	5.811
MS.151         	28.585         	5.812
MS.152         	28.53          	5.822
MS.153         	28.472         	5.778
MS.154         	28.415         	5.8
MS.155         	28.358         	5.769
MS.156         	28.302         	5.789
MS.157         	28.245         	5.787
MS.158         	28.188         	5.759
MS.159         	28.132         	5.791
MS.160         	28.075         	5.767
MS.161         	28.02          	5.75
MS.162         	27.965         	5.76
MS.163         	27.907         	5.734
MS.164         	27.852         	5.724
MS.165         	27.797         	5.731
MS.166         	27.74          	5.72
MS.167         	27.685         	5.74
MS.168         	27.63          	5.699
MS.169         	27.575         	5.704
MS.170         	27.52          	5.73
MS.171         	27.465         	5.699
MS.172         	27.41          	5.693
MS.173         	27.355         	5.682
MS.174         	27.3           	5.66
MS.175         	27.247         	5.697
MS.176         	27.192         	5.674
MS.177         	27.137         	5.663
MS.178         	27.082         	5.668
MS.179         	27.03          	5.675
MS.180         	26.975         	5.669
MS.181         	26.922         	5.674
MS.182         	26.868         	5.665
MS.183         	26.815         	5.649
MS.184         	26.76          	5.652
MS.185         	26.707         	5.664
MS.186         	26.653         	5.625
MS.187         	26.6           	5.641
MS.188         	26.547         	5.641
MS.189         	26.495         	5.645
MS.190         	26.44          	5.658
MS.191         	26.387         	5.646
MS.192         	26.335         	5.623
MS.193         	26.282         	5.602
MS.194         	26.23          	5.62
MS.195         	26.177         	5.573
MS.196         	26.125         	5.61
MS.197         	26.073         	5.614
MS.198         	26.022         	5.596
MS.199         	25.97          	5.623
MS.200         	25.917         	5.612
MS.201         	25.865         	5.591
MS.202         	25.815         	5.575
MS.203         	25.762         	5.562
MS.204         	25.71          	5.604
MS.205         	25.66          	5.565
MS.206         	25.608         	5.59
MS.207         	25.557         	5.564
MS.208         	25.505         	5.56
MS.209         	25.455         	5.565
MS.210         	25.405         	5.549
MS.211         	25.352         	5.551
MS.212         	25.302         	5.564
MS.213         	25.252         	5.544
MS.214         	25.202         	5.526
MS.215         	25.153         	5.507
MS.216         	25.1           	5.514
MS.217         	25.05          	5.5
MS.218         	25             	5.444
MS.219         	24.95          	5.455
MS.220         	24.9           	5.461
MS.221         	24.852         	5.472
MS.222         	24.802         	5.498
MS.223         	24.752         	5.448
MS.224         	24.702         	5.477
MS.225         	24.653         	5.447
MS.226         	24.605         	5.43
MS.227         	24.555         	5.369
MS.228         	24.505         	5.369
MS.229         	24.457         	5.43
MS.230         	24.407         	5.41
MS.231         	24.36          	5.422
MS.232         	24.31          	5.413
MS.233         	24.262         	5.389
MS.234         	24.212         	5.356
MS.235         	24.165         	5.323
MS.236         	24.118         	5.391
MS.237         	24.07          	5.326
MS.238         	24.02          	5.271
MS.239         	23.972         	5.269
MS.240         	23.925         	5.231
MS.241         	23.877         	5.3
MS.242         	23.83          	5.239
MS.243         	23.782         	5.231
MS.244         	23.735         	5.245
MS.245         	23.688         	5.188
MS.246         	23.64          	5.195
MS.247         	23.592         	5.232
MS.248         	23.545         	5.139
MS.249         	23.497         	5.115
MS.250         	23.45          	5.11
MS.251         	23.405         	5.145
MS.252         	23.358         	5.081
MS.253         	23.31          	5.104
MS.254         	23.265         	5.013
MS.255         	23.217         	5.001
MS.256         	23.172         	5.09
MS.257         	23.125         	5.048
MS.258         	23.08          	5.063
MS.259         	23.032         	5.028
MS.260         	22.987         	4.984
MS.261         	22.94          	4.998
MS.262         	22.895         	5.035
MS.263         	22.85          	4.95
MS.264         	22.802         	4.908
MS.265         	22.757         	4.962
MS.266         	22.712         	4.916
MS.267         	22.667         	4.865
MS.268         	22.622         	4.877
MS.269         	22.577         	4.949
MS.270         	22.532         	4.843
MS.271         	22.487         	4.792
MS.272         	22.442         	4.913
MS.273         	22.397         	4.813
MS.274         	22.352         	4.833
MS.275         	22.307         	4.916
MS.276         	22.262         	4.774
MS.277         	22.217         	4.756
MS.278         	22.175         	4.832
MS.279         	22.13          	4.902
MS.280         	22.085         	4.775
MS.281         	22.042         	4.781
MS.282         	21.997         	4.655
MS.283         	21.952         	4.773
MS.284         	21.91          	4.762
MS.285         	21.865         	4.667
MS.286         	21.823         	4.758
MS.287         	21.778         	4.69
MS.288         	21.735         	4.712
MS.289         	21.692         	4.625
MS.290         	21.647         	4.668
MS.291         	21.605         	4.663
MS.292         	21.562         	4.618
MS.293         	21.517         	4.641
MS.294         	21.475         	4.602
MS.295         	21.432         	4.595
MS.296         	21.39          	4.559
MS.297         	21.347         	4.529
MS.298         	21.305         	4.532
MS.299         	21.262         	4.57
MS.300         	21.22          	4.536
MS.301         	21.177         	4.425
MS.302         	21.135         	4.54
MS.303         	21.092         	4.504
MS.304         	21.05          	4.373
MS.305         	21.007         	4.44
MS.306         	20.967         	4.377
MS.307         	20.925         	4.392
MS.308         	20.882         	4.338
MS.309         	20.84          	4.277
MS.310         	20.8           	4.417
MS.311         	20.757         	4.392
MS.312         	20.715         	4.252
MS.313         	20.675         	4.197
MS.314         	20.632         	4.329
MS.315         	20.592         	4.332
MS.316         	20.55          	4.362
MS.317         	20.51          	4.259
MS.318         	20.47          	4.321
MS.319         	20.427         	4.218
MS.320         	20.387         	4.333
MS.321         	20.347         	4.264
MS.322         	20.305         	4.204
MS.323         	20.265         	4.16
MS.324         	20.225         	4.099
MS.325         	20.185         	4.144
MS.326         	20.145         	4.144
MS.327         	20.105         	4.12
MS.328         	20.065         	4.062
MS.329         	20.022         	4.067
MS.330         	19.983         	4.13
MS.331         	19.945         	4.07
MS.332         	19.905         	4.044
MS.333         	19.865         	3.951
MS.334         	19.825         	3.883
MS.335         	19.785         	4.05
MS.336         	19.745         	4.008
MS.337         	19.705         	3.906
MS.338         	19.667         	3.877
MS.339         	19.627         	3.953
MS.340         	19.587         	3.951
MS.341         	19.55          	3.961
MS.342         	19.51          	3.942
MS.343         	19.47          	3.9
MS.344         	19.432         	3.893
MS.345         	19.392         	3.842
MS.346         	19.355         	3.862
MS.347         	19.315         	3.794
MS.348         	19.278         	3.859
MS.349         	19.237         	3.647
MS.350         	19.2           	3.851
MS.351         	19.163         	3.701
MS.352         	19.122         	3.721
MS.353         	19.085         	3.816
MS.354         	19.047         	3.766
MS.355         	19.01          	3.618
MS.356         	18.97          	3.654
MS.357         	18.932         	3.553
MS.358         	18.895         	3.643
MS.359         	18.858         	3.413
MS.360         	18.82          	3.54
MS.361         	18.782         	3.588
MS.362         	18.745         	3.584
MS.363         	18.708         	3.389
MS.364         	18.67          	3.344
MS.365         	18.632         	3.37
MS.366         	18.595         	3.334
MS.367         	18.557         	3.254
MS.368         	18.52          	3.461
MS.369         	18.485         	3.259
MS.370         	18.448         	3.468
MS.371         	18.41          	3.029
MS.372         	18.372         	3.185
MS.373         	18.337         	3.186
MS.374         	18.3           	3.171
MS.375         	18.262         	3.135
MS.376         	18.227         	3.043
MS.377         	18.19          	3.159
MS.378         	18.155         	3.097
MS.379         	18.118         	2.933
MS.380         	18.083         	2.892
MS.381         	18.045         	2.961
MS.382         	18.01          	2.889
MS.383         	17.975         	2.92
MS.384         	17.938         	3.108
MS.385         	17.903         	2.753
MS.386         	17.868         	2.859
MS.387         	17.83          	2.772
MS.388         	17.795         	2.809
MS.389         	17.76          	2.843
MS.390         	17.725         	2.839
MS.391         	17.688         	2.703
MS.392         	17.653         	2.697
MS.393         	17.618         	2.655
MS.394         	17.583         	2.676
MS.395         	17.547         	2.64
MS.396         	17.512         	2.633
MS.397         	17.477         	2.682
MS.398         	17.442         	2.695
MS.399         	17.407         	2.554
MS.400         	17.372         	2.538
MS.401         	17.337         	2.61
MS.402         	17.302         	2.498
MS.403         	17.27          	2.485
MS.404         	17.235         	2.432
MS.405         	17.2           	2.268
MS.406         	17.165         	2.389
MS.407         	17.132         	2.269
MS.408         	17.097         	2.235
MS.409         	17.062         	2.122
MS.410         	17.03          	2.256
MS.411         	16.995         	2.151
MS.412         	16.96          	2.178
MS.413         	16.927         	2.169
MS.414         	16.892         	2.103
MS.415         	16.86          	2
MS.416         	16.825         	2.061
MS.417         	16.792         	2.126
MS.418         	16.757         	2.043
MS.419         	16.725         	1.974
MS.420         	16.692         	2.075
MS.421         	16.657         	1.887
MS.422         	16.625         	1.864
MS.423         	16.592         	1.814
MS.424         	16.56          	1.818
MS.425         	16.525         	1.794
MS.426         	16.493         	1.808
MS.427         	16.46          	1.678
MS.428         	16.427         	1.743
MS.429         	16.395         	1.807
MS.430         	16.362         	1.771
MS.431         	16.327         	1.737
MS.432         	16.295         	1.715
MS.433         	16.262         	1.682
MS.434         	16.23          	1.644
MS.435         	16.198         	1.631
MS.436         	16.165         	1.654
MS.437         	16.135         	1.649
MS.438         	16.102         	1.536
MS.439         	16.07          	1.582
MS.440         	16.038         	1.542
MS.441         	16.005         	1.445
MS.442         	15.972         	1.576
MS.443         	15.943         	1.49
MS.444         	15.91          	1.411
MS.445         	15.877         	1.421
MS.446         	15.845         	1.464
MS.447         	15.815         	1.498
MS.448         	15.782         	1.486
MS.449         	15.75          	1.398
MS.450         	15.72          	1.392
MS.451         	15.688         	1.425
MS.452         	15.657         	1.339
MS.453         	15.625         	1.322
MS.454         	15.595         	1.24
MS.455         	15.562         	1.437
MS.456         	15.532         	1.268
MS.457         	15.5           	1.337
MS.458         	15.47          	1.309
MS.459         	15.44          	1.283
MS.460         	15.407         	1.241
MS.461         	15.377         	1.252
MS.462         	15.347         	1.204
MS.463         	15.318         	1.23
MS.464         	15.285         	1.166
MS.465         	15.255         	1.199
MS.466         	15.225         	1.198
MS.467         	15.195         	1.218
MS.468         	15.165         	1.226
MS.469         	15.132         	1.155
MS.470         	15.102         	1.196
MS.471         	15.072         	1.177
MS.472         	15.042         	1.058
MS.473         	15.012         	1.1
MS.474         	14.983         	1.112
MS.475         	14.952         	1.118
MS.476         	14.922         	1.073
MS.477         	14.892         	1.067
MS.478         	14.862         	1.132
MS.479         	14.835         	1.014
MS.480         	14.805         	1.018
MS.481         	14.775         	1.06
MS.482         	14.745         	1.062
MS.483         	14.715         	1.071
MS.484         	14.688         	1.084
MS.485         	14.657         	1.003
MS.486         	14.627         	0.996
MS.487         	14.597         	1.053
MS.488         	14.57          	0.986
MS.489         	14.54          	0.973
MS.490         	14.51          	0.996
MS.491         	14.483         	0.928
MS.492         	14.452         	1.005
MS.493         	14.425         	0.833
MS.494         	14.395         	0.848
MS.495         	14.367         	0.996
MS.496         	14.337         	0.89
MS.497         	14.31          	0.885
MS.498         	14.28          	0.846
MS.499         	14.252         	0.886
MS.500         	14.225         	0.829
MS.501         	14.195         	0.803
