File:              	C:\Qtrac\Data\Daniel M Sørensen\MScan multicentre study\Data from centres\Edmonton\MSCC00309C.QZD
Name:              	CA.EDM.NC.6.2
Protocol:          	MSCAN-R2
Date:              	9/3/20
Start time:        	13:12:36
Age:               	66
Sex:               	M
Temperature:       	33.4
S/R sites:         	CP Kn-TA
NC/disease:        	NC
Operator:          	KJ
Comments:
M-SCAN DATA (11.7-3.6m)
Scanpts: 11, 20, 840, 861
Stim. (mA)     	Amp. (mV)
MS.1           	44.5           	5.116
MS.2           	44.5           	5.156
MS.3           	44.5           	5.182
MS.4           	44.5           	5.09
MS.5           	44.5           	5.152
MS.6           	44.5           	5.152
MS.7           	44.5           	5.172
MS.8           	44.5           	5.098
MS.9           	44.5           	5.136
MS.10          	44.5           	5.124
MS.11          	44.5           	5.1
MS.12          	44.5           	5.078
MS.13          	44.5           	5.13
MS.14          	44.5           	5.142
MS.15          	44.5           	5.136
MS.16          	44.5           	5.122
MS.17          	44.5           	5.166
MS.18          	44.5           	5.072
MS.19          	44.5           	5.142
MS.20          	44.5           	5.07
MS.21          	44.5           	5.154
MS.22          	44.5           	5.08
MS.23          	44.5           	5.154
MS.24          	44.322         	5.134
MS.25          	44.232         	5.148
MS.26          	44.145         	5.098
MS.27          	44.057         	5.126
MS.28          	43.97          	5.138
MS.29          	43.88          	5.142
MS.30          	43.792         	5.084
MS.31          	43.705         	5.116
MS.32          	43.618         	5.068
MS.33          	43.532         	5.12
MS.34          	43.445         	5.054
MS.35          	43.357         	5.06
MS.36          	43.27          	5.047
MS.37          	43.185         	5.118
MS.38          	43.097         	4.989
MS.39          	43.013         	5.112
MS.40          	42.927         	5.058
MS.41          	42.84          	5.068
MS.42          	42.755         	5.064
MS.43          	42.67          	5.043
MS.44          	42.585         	5.06
MS.45          	42.5           	5.056
MS.46          	42.415         	5.015
MS.47          	42.33          	5.049
MS.48          	42.245         	5.041
MS.49          	42.16          	5.015
MS.50          	42.077         	5.027
MS.51          	41.993         	5.019
MS.52          	41.907         	5.019
MS.53          	41.825         	4.987
MS.54          	41.74          	4.917
MS.55          	41.657         	4.947
MS.56          	41.575         	4.989
MS.57          	41.493         	4.951
MS.58          	41.407         	4.9
MS.59          	41.325         	4.872
MS.60          	41.243         	4.876
MS.61          	41.16          	4.878
MS.62          	41.077         	4.874
MS.63          	40.997         	4.957
MS.64          	40.915         	4.838
MS.65          	40.833         	4.88
MS.66          	40.75          	4.921
MS.67          	40.67          	4.826
MS.68          	40.587         	4.818
MS.69          	40.507         	4.866
MS.70          	40.427         	4.86
MS.71          	40.345         	4.822
MS.72          	40.265         	4.81
MS.73          	40.185         	4.842
MS.74          	40.105         	4.759
MS.75          	40.025         	4.802
MS.76          	39.945         	4.78
MS.77          	39.865         	4.759
MS.78          	39.785         	4.727
MS.79          	39.705         	4.802
MS.80          	39.625         	4.719
MS.81          	39.548         	4.727
MS.82          	39.467         	4.725
MS.83          	39.39          	4.715
MS.84          	39.31          	4.669
MS.85          	39.232         	4.691
MS.86          	39.153         	4.687
MS.87          	39.075         	4.663
MS.88          	38.997         	4.723
MS.89          	38.92          	4.717
MS.90          	38.842         	4.677
MS.91          	38.765         	4.693
MS.92          	38.688         	4.651
MS.93          	38.61          	4.637
MS.94          	38.532         	4.665
MS.95          	38.455         	4.61
MS.96          	38.377         	4.604
MS.97          	38.302         	4.6
MS.98          	38.225         	4.606
MS.99          	38.147         	4.602
MS.100         	38.072         	4.544
MS.101         	37.995         	4.61
MS.102         	37.92          	4.574
MS.103         	37.845         	4.58
MS.104         	37.77          	4.564
MS.105         	37.692         	4.58
MS.106         	37.618         	4.526
MS.107         	37.542         	4.542
MS.108         	37.467         	4.522
MS.109         	37.392         	4.471
MS.110         	37.318         	4.498
MS.111         	37.245         	4.486
MS.112         	37.17          	4.479
MS.113         	37.095         	4.441
MS.114         	37.02          	4.5
MS.115         	36.947         	4.435
MS.116         	36.872         	4.399
MS.117         	36.8           	4.401
MS.118         	36.725         	4.413
MS.119         	36.653         	4.439
MS.120         	36.58          	4.355
MS.121         	36.507         	4.312
MS.122         	36.432         	4.357
MS.123         	36.36          	4.379
MS.124         	36.287         	4.377
MS.125         	36.215         	4.298
MS.126         	36.142         	4.375
MS.127         	36.07          	4.353
MS.128         	36             	4.312
MS.129         	35.927         	4.284
MS.130         	35.855         	4.276
MS.131         	35.782         	4.238
MS.132         	35.712         	4.224
MS.133         	35.64          	4.242
MS.134         	35.57          	4.191
MS.135         	35.497         	4.173
MS.136         	35.427         	4.198
MS.137         	35.357         	4.214
MS.138         	35.285         	4.151
MS.139         	35.215         	4.22
MS.140         	35.145         	4.226
MS.141         	35.075         	4.195
MS.142         	35.005         	4.161
MS.143         	34.935         	4.153
MS.144         	34.865         	4.212
MS.145         	34.795         	4.246
MS.146         	34.725         	4.038
MS.147         	34.657         	4.173
MS.148         	34.587         	4.085
MS.149         	34.517         	4.081
MS.150         	34.45          	4.113
MS.151         	34.38          	4.129
MS.152         	34.312         	4.125
MS.153         	34.243         	4.071
MS.154         	34.175         	4.127
MS.155         	34.107         	4.02
MS.156         	34.037         	4.04
MS.157         	33.97          	4.091
MS.158         	33.903         	4.03
MS.159         	33.835         	3.944
MS.160         	33.767         	4.01
MS.161         	33.7           	4.008
MS.162         	33.632         	3.962
MS.163         	33.565         	3.944
MS.164         	33.497         	4.002
MS.165         	33.43          	3.881
MS.166         	33.365         	3.853
MS.167         	33.298         	3.849
MS.168         	33.23          	3.807
MS.169         	33.165         	3.869
MS.170         	33.097         	3.823
MS.171         	33.032         	3.821
MS.172         	32.967         	3.841
MS.173         	32.9           	3.809
MS.174         	32.835         	3.756
MS.175         	32.77          	3.718
MS.176         	32.702         	3.708
MS.177         	32.638         	3.708
MS.178         	32.572         	3.718
MS.179         	32.507         	3.734
MS.180         	32.443         	3.658
MS.181         	32.377         	3.664
MS.182         	32.312         	3.682
MS.183         	32.25          	3.672
MS.184         	32.185         	3.632
MS.185         	32.12          	3.625
MS.186         	32.055         	3.603
MS.187         	31.992         	3.587
MS.188         	31.927         	3.573
MS.189         	31.865         	3.531
MS.190         	31.8           	3.535
MS.191         	31.737         	3.472
MS.192         	31.672         	3.45
MS.193         	31.61          	3.559
MS.194         	31.547         	3.41
MS.195         	31.485         	3.527
MS.196         	31.422         	3.476
MS.197         	31.358         	3.374
MS.198         	31.295         	3.386
MS.199         	31.233         	3.428
MS.200         	31.17          	3.364
MS.201         	31.108         	3.337
MS.202         	31.047         	3.201
MS.203         	30.985         	3.299
MS.204         	30.922         	3.164
MS.205         	30.86          	3.339
MS.206         	30.8           	3.227
MS.207         	30.737         	3.229
MS.208         	30.675         	3.1
MS.209         	30.615         	3.209
MS.210         	30.552         	3.049
MS.211         	30.492         	3.013
MS.212         	30.432         	3.142
MS.213         	30.37          	3.023
MS.214         	30.31          	2.979
MS.215         	30.25          	3.084
MS.216         	30.19          	2.953
MS.217         	30.13          	2.943
MS.218         	30.067         	2.961
MS.219         	30.007         	2.965
MS.220         	29.948         	2.937
MS.221         	29.89          	2.892
MS.222         	29.83          	2.919
MS.223         	29.77          	2.834
MS.224         	29.71          	2.822
MS.225         	29.65          	2.906
MS.226         	29.592         	2.862
MS.227         	29.532         	2.729
MS.228         	29.472         	2.862
MS.229         	29.415         	2.878
MS.230         	29.355         	2.818
MS.231         	29.297         	2.812
MS.232         	29.237         	2.769
MS.233         	29.18          	2.824
MS.234         	29.122         	2.854
MS.235         	29.062         	2.953
MS.236         	29.005         	2.773
MS.237         	28.948         	2.826
MS.238         	28.89          	2.872
MS.239         	28.832         	2.83
MS.240         	28.775         	2.733
MS.241         	28.717         	2.866
MS.242         	28.66          	2.81
MS.243         	28.602         	2.679
MS.244         	28.545         	2.802
MS.245         	28.487         	2.733
MS.246         	28.43          	2.685
MS.247         	28.375         	2.828
MS.248         	28.317         	2.858
MS.249         	28.26          	2.717
MS.250         	28.205         	2.776
MS.251         	28.147         	2.729
MS.252         	28.092         	2.681
MS.253         	28.035         	2.681
MS.254         	27.98          	2.79
MS.255         	27.925         	2.765
MS.256         	27.868         	2.695
MS.257         	27.812         	2.721
MS.258         	27.757         	2.745
MS.259         	27.702         	2.739
MS.260         	27.645         	2.765
MS.261         	27.59          	2.763
MS.262         	27.535         	2.767
MS.263         	27.48          	2.689
MS.264         	27.425         	2.701
MS.265         	27.37          	2.693
MS.266         	27.317         	2.657
MS.267         	27.262         	2.735
MS.268         	27.207         	2.731
MS.269         	27.153         	2.637
MS.270         	27.097         	2.711
MS.271         	27.045         	2.747
MS.272         	26.99          	2.669
MS.273         	26.938         	2.715
MS.274         	26.882         	2.679
MS.275         	26.83          	2.665
MS.276         	26.775         	2.628
MS.277         	26.722         	2.602
MS.278         	26.667         	2.741
MS.279         	26.615         	2.79
MS.280         	26.562         	2.659
MS.281         	26.51          	2.602
MS.282         	26.455         	2.62
MS.283         	26.403         	2.58
MS.284         	26.35          	2.6
MS.285         	26.297         	2.681
MS.286         	26.245         	2.637
MS.287         	26.192         	2.645
MS.288         	26.14          	2.596
MS.289         	26.087         	2.465
MS.290         	26.035         	2.552
MS.291         	25.985         	2.542
MS.292         	25.932         	2.626
MS.293         	25.88          	2.584
MS.294         	25.827         	2.5
MS.295         	25.778         	2.487
MS.296         	25.725         	2.566
MS.297         	25.675         	2.417
MS.298         	25.622         	2.624
MS.299         	25.573         	2.588
MS.300         	25.52          	2.405
MS.301         	25.47          	2.469
MS.302         	25.417         	2.504
MS.303         	25.368         	2.463
MS.304         	25.317         	2.363
MS.305         	25.267         	2.461
MS.306         	25.215         	2.467
MS.307         	25.165         	2.365
MS.308         	25.115         	2.244
MS.309         	25.065         	2.429
MS.310         	25.015         	2.234
MS.311         	24.965         	2.5
MS.312         	24.915         	2.359
MS.313         	24.865         	2.254
MS.314         	24.815         	2.29
MS.315         	24.767         	2.185
MS.316         	24.717         	2.23
MS.317         	24.667         	2.24
MS.318         	24.618         	2.242
MS.319         	24.57          	2.274
MS.320         	24.52          	2.244
MS.321         	24.47          	2.175
MS.322         	24.422         	2.264
MS.323         	24.372         	2.25
MS.324         	24.325         	2.224
MS.325         	24.275         	2.191
MS.326         	24.227         	2.167
MS.327         	24.18          	2.248
MS.328         	24.13          	2.25
MS.329         	24.082         	2.234
MS.330         	24.035         	2.248
MS.331         	23.987         	2.119
MS.332         	23.938         	2.25
MS.333         	23.89          	2.193
MS.334         	23.842         	1.998
MS.335         	23.795         	1.96
MS.336         	23.747         	2.01
MS.337         	23.7           	1.954
MS.338         	23.653         	2.073
MS.339         	23.605         	1.958
MS.340         	23.557         	1.883
MS.341         	23.512         	2.117
MS.342         	23.465         	2.175
MS.343         	23.417         	1.974
MS.344         	23.37          	2.071
MS.345         	23.325         	2.139
MS.346         	23.278         	1.877
MS.347         	23.23          	1.992
MS.348         	23.185         	2.002
MS.349         	23.137         	2.042
MS.350         	23.092         	1.97
MS.351         	23.045         	1.946
MS.352         	23             	2.038
MS.353         	22.955         	1.875
MS.354         	22.907         	1.861
MS.355         	22.862         	1.865
MS.356         	22.817         	1.849
MS.357         	22.77          	1.889
MS.358         	22.725         	1.883
MS.359         	22.68          	1.855
MS.360         	22.635         	1.901
MS.361         	22.59          	1.871
MS.362         	22.545         	1.863
MS.363         	22.5           	1.853
MS.364         	22.455         	1.827
MS.365         	22.41          	1.875
MS.366         	22.365         	1.855
MS.367         	22.32          	1.855
MS.368         	22.275         	1.877
MS.369         	22.23          	1.825
MS.370         	22.188         	1.855
MS.371         	22.142         	1.815
MS.372         	22.097         	1.859
MS.373         	22.055         	1.847
MS.374         	22.01          	1.859
MS.375         	21.965         	1.847
MS.376         	21.922         	1.871
MS.377         	21.877         	1.869
MS.378         	21.835         	1.811
MS.379         	21.79          	1.821
MS.380         	21.747         	1.859
MS.381         	21.705         	1.871
MS.382         	21.66          	1.867
MS.383         	21.618         	1.813
MS.384         	21.575         	1.839
MS.385         	21.53          	1.801
MS.386         	21.487         	1.803
MS.387         	21.445         	1.865
MS.388         	21.403         	1.869
MS.389         	21.36          	1.877
MS.390         	21.317         	1.801
MS.391         	21.275         	1.837
MS.392         	21.233         	1.795
MS.393         	21.19          	1.847
MS.394         	21.147         	1.847
MS.395         	21.105         	1.823
MS.396         	21.062         	1.821
MS.397         	21.02          	1.813
MS.398         	20.977         	1.776
MS.399         	20.938         	1.817
MS.400         	20.895         	1.831
MS.401         	20.852         	1.772
MS.402         	20.81          	1.791
MS.403         	20.77          	1.805
MS.404         	20.727         	1.825
MS.405         	20.688         	1.787
MS.406         	20.645         	1.716
MS.407         	20.605         	1.783
MS.408         	20.562         	1.809
MS.409         	20.522         	1.837
MS.410         	20.48          	1.738
MS.411         	20.44          	1.785
MS.412         	20.4           	1.742
MS.413         	20.358         	1.734
MS.414         	20.317         	1.734
MS.415         	20.278         	1.722
MS.416         	20.237         	1.704
MS.417         	20.195         	1.746
MS.418         	20.155         	1.74
MS.419         	20.115         	1.73
MS.420         	20.075         	1.716
MS.421         	20.035         	1.71
MS.422         	19.995         	1.732
MS.423         	19.955         	1.71
MS.424         	19.915         	1.728
MS.425         	19.875         	1.732
MS.426         	19.835         	1.734
MS.427         	19.795         	1.73
MS.428         	19.757         	1.722
MS.429         	19.717         	1.738
MS.430         	19.677         	1.712
MS.431         	19.637         	1.73
MS.432         	19.6           	1.714
MS.433         	19.56          	1.738
MS.434         	19.52          	1.75
MS.435         	19.483         	1.73
MS.436         	19.442         	1.744
MS.437         	19.405         	1.625
MS.438         	19.365         	1.732
MS.439         	19.327         	1.734
MS.440         	19.288         	1.744
MS.441         	19.25          	1.742
MS.442         	19.21          	1.738
MS.443         	19.172         	1.752
MS.444         	19.135         	1.734
MS.445         	19.095         	1.726
MS.446         	19.057         	1.724
MS.447         	19.02          	1.615
MS.448         	18.983         	1.615
MS.449         	18.945         	1.513
MS.450         	18.905         	1.744
MS.451         	18.868         	1.517
MS.452         	18.83          	1.507
MS.453         	18.792         	1.742
MS.454         	18.755         	1.744
MS.455         	18.717         	1.742
MS.456         	18.68          	1.525
MS.457         	18.642         	1.625
MS.458         	18.605         	1.744
MS.459         	18.57          	1.529
MS.460         	18.532         	1.523
MS.461         	18.495         	1.529
MS.462         	18.458         	1.629
MS.463         	18.42          	1.422
MS.464         	18.385         	1.539
MS.465         	18.347         	1.529
MS.466         	18.31          	1.523
MS.467         	18.275         	1.436
MS.468         	18.237         	1.43
MS.469         	18.2           	1.422
MS.470         	18.165         	1.426
MS.471         	18.128         	1.438
MS.472         	18.092         	1.525
MS.473         	18.055         	1.43
MS.474         	18.02          	1.525
MS.475         	17.985         	1.442
MS.476         	17.948         	1.436
MS.477         	17.913         	1.442
MS.478         	17.878         	1.426
MS.479         	17.84          	1.424
MS.480         	17.805         	1.44
MS.481         	17.77          	1.424
MS.482         	17.735         	1.438
MS.483         	17.698         	1.43
MS.484         	17.663         	1.418
MS.485         	17.628         	1.43
MS.486         	17.592         	1.434
MS.487         	17.557         	1.412
MS.488         	17.522         	1.426
MS.489         	17.487         	1.434
MS.490         	17.452         	1.432
MS.491         	17.417         	1.422
MS.492         	17.382         	1.424
MS.493         	17.347         	1.416
MS.494         	17.312         	1.422
MS.495         	17.28          	1.402
MS.496         	17.245         	1.39
MS.497         	17.21          	1.39
MS.498         	17.175         	1.386
MS.499         	17.14          	1.416
MS.500         	17.108         	1.452
MS.501         	17.073         	1.42
MS.502         	17.038         	1.402
